;From Mike Nolan, edited to remove extra entries and to add header
;wavelength (microns)   flux (W/m2/nm)  smoothing
 0.392   1.13993   0.03420  195.
 0.394   0.87331   0.02620  194.
 0.396   1.05735   0.03172  193.
 0.398   1.22628   0.03679  192.
 0.400   1.64392   0.04932  190.
 0.402   1.73803   0.05214  189.
 0.404   1.69516   0.05085  188.
 0.406   1.63702   0.04911  187.
 0.408   1.68441   0.05053  186.
 0.410   1.65721   0.04972  186.
 0.412   1.76256   0.05288  185.
 0.414   1.76492   0.05295  184.
 0.416   1.77478   0.05324  183.
 0.418   1.72572   0.05177  182.
 0.420   1.74258   0.05228  181.
 0.422   1.72629   0.05179  180.
 0.424   1.73920   0.05218  179.
 0.426   1.72335   0.05170  179.
 0.428   1.63308   0.04899  178.
 0.430   1.42604   0.04278  177.
 0.432   1.58782   0.04763  176.
 0.434   1.65489   0.04965  175.
 0.436   1.76930   0.05308  175.
 0.438   1.74760   0.05243  174.
 0.440   1.80755   0.05423  173.
 0.442   1.92744   0.05782  173.
 0.444   1.95370   0.05861  172.
 0.446   1.91195   0.05736  171.
 0.448   1.99785   0.05994  170.
 0.450   2.07109   0.06213  170.
 0.452   2.06058   0.06182  169.
 0.454   2.01784   0.06054  169.
 0.456   2.07227   0.06217  168.
 0.458   2.07464   0.06224  167.
 0.460   2.06498   0.06195  167.
 0.462   2.08817   0.06265  166.
 0.464   2.06257   0.06188  165.
 0.466   2.02876   0.06086  165.
 0.468   2.01626   0.06049  164.
 0.470   2.00487   0.06015  164.
 0.472   2.03211   0.06096  163.
 0.474   2.06932   0.06208  163.
 0.476   2.06821   0.06205  162.
 0.478   2.07647   0.06229  162.
 0.480   2.08744   0.06262  161.
 0.482   2.08052   0.06242  161.
 0.484   2.00151   0.06005  160.
 0.486   1.84469   0.05534  160.
 0.488   1.89347   0.05680  159.
 0.490   1.97953   0.05939  159.
 0.492   1.95540   0.05866  158.
 0.494   1.97551   0.05927  158.
 0.496   1.99720   0.05992  157.
 0.498   1.96289   0.05889  157.
 0.500   1.90834   0.05725  156.
 0.502   1.88288   0.05649  156.
 0.504   1.92059   0.05762  155.
 0.506   1.94358   0.05831  155.
 0.508   1.89245   0.05677  155.
 0.510   1.89617   0.05689  154.
 0.512   1.90162   0.05705  154.
 0.514   1.85285   0.05559  153.
 0.516   1.77838   0.05335  153.
 0.518   1.71959   0.05159  152.
 0.520   1.79294   0.05379  152.
 0.522   1.83739   0.05512  152.
 0.524   1.85556   0.05567  151.
 0.526   1.83016   0.05490  151.
 0.528   1.83150   0.05494  151.
 0.530   1.89019   0.05671  150.
 0.532   1.87532   0.05626  150.
 0.534   1.86217   0.05587  149.
 0.536   1.88514   0.05655  149.
 0.538   1.86926   0.05608  149.
 0.540   1.83482   0.05504  148.
 0.542   1.83754   0.05513  148.
 0.544   1.86423   0.05593  148.
 0.546   1.87858   0.05636  147.
 0.548   1.87526   0.05626  147.
 0.550   1.87296   0.05619  147.
 0.552   1.87031   0.05611  146.
 0.554   1.87324   0.05620  146.
 0.556   1.85697   0.05571  146.
 0.558   1.81622   0.05449  145.
 0.560   1.80609   0.05418  145.
 0.562   1.82320   0.05470  145.
 0.564   1.82260   0.05468  144.
 0.566   1.80528   0.05416  144.
 0.568   1.80226   0.05407  144.
 0.570   1.79696   0.05391  144.
 0.572   1.81360   0.05441  143.
 0.574   1.83183   0.05495  143.
 0.576   1.82064   0.05462  143.
 0.578   1.80716   0.05421  142.
 0.580   1.80826   0.05425  142.
 0.582   1.81933   0.05458  142.
 0.584   1.81321   0.05440  142.
 0.586   1.78751   0.05363  141.
 0.588   1.75029   0.05251  141.
 0.590   1.73230   0.05197  141.
 0.592   1.75558   0.05267  141.
 0.594   1.76498   0.05295  140.
 0.596   1.76000   0.05280  140.
 0.598   1.75065   0.05252  140.
 0.600   1.73469   0.05204  140.
 0.602   1.72586   0.05178  140.
 0.604   1.73402   0.05202  140.
 0.606   1.73796   0.05214  140.
 0.608   1.72963   0.05189  140.
 0.610   1.71633   0.05149  140.
 0.612   1.70051   0.05102  140.
 0.614   1.68010   0.05040  140.
 0.616   1.66470   0.04994  140.
 0.618   1.66795   0.05004  140.
 0.620   1.67692   0.05031  140.
 0.622   1.66751   0.05003  140.
 0.624   1.64810   0.04944  140.
 0.626   1.64782   0.04943  140.
 0.628   1.65736   0.04972  140.
 0.630   1.65101   0.04953  140.
 0.632   1.63812   0.04914  140.
 0.634   1.63147   0.04894  140.
 0.636   1.62926   0.04888  140.
 0.638   1.62510   0.04875  140.
 0.640   1.61237   0.04837  140.
 0.642   1.60190   0.04806  140.
 0.644   1.59870   0.04796  140.
 0.646   1.59365   0.04781  140.
 0.648   1.58506   0.04755  140.
 0.650   1.57720   0.04732  140.
 0.652   1.56759   0.04703  140.
 0.654   1.52636   0.04579  140.
 0.656   1.47053   0.04412  140.
 0.658   1.47572   0.04427  140.
 0.660   1.51620   0.04549  140.
 0.662   1.53076   0.04592  140.
 0.664   1.52403   0.04572  140.
 0.666   1.51819   0.04555  140.
 0.668   1.52082   0.04562  140.
 0.670   1.52587   0.04578  140.
 0.672   1.52686   0.04581  140.
 0.674   1.52290   0.04569  140.
 0.676   1.51365   0.04541  140.
 0.678   1.50009   0.04500  140.
 0.680   1.48734   0.04462  140.
 0.682   1.48136   0.04444  140.
 0.684   1.48033   0.04441  140.
 0.686   1.48098   0.04443  140.
 0.688   1.47736   0.04432  140.
 0.690   1.46609   0.04398  140.
 0.692   1.45439   0.04363  140.
 0.694   1.45050   0.04351  140.
 0.696   1.45082   0.04352  140.
 0.698   1.44742   0.04342  140.
 0.700   1.43997   0.04320  140.
 0.702   1.43430   0.04303  140.
 0.704   1.43349   0.04300  140.
 0.706   1.42957   0.04289  140.
 0.708   1.41792   0.04254  140.
 0.710   1.40254   0.04208  140.
 0.712   1.38743   0.04162  140.
 0.714   1.37455   0.04124  140.
 0.716   1.36527   0.04096  140.
 0.718   1.35752   0.04073  140.
 0.720   1.35083   0.04052  140.
 0.722   1.34704   0.04041  140.
 0.724   1.34309   0.04029  140.
 0.726   1.33599   0.04008  140.
 0.728   1.32632   0.03979  140.
 0.730   1.31962   0.03959  140.
 0.732   1.31809   0.03954  140.
 0.734   1.31575   0.03947  140.
 0.736   1.30795   0.03924  140.
 0.738   1.29546   0.03886  140.
 0.740   1.28413   0.03852  140.
 0.742   1.28011   0.03840  140.
 0.744   1.28219   0.03847  140.
 0.746   1.28355   0.03851  140.
 0.748   1.27980   0.03839  140.
 0.750   1.27264   0.03818  140.
 0.752   1.26772   0.03803  140.
 0.754   1.26575   0.03797  140.
 0.756   1.26195   0.03786  140.
 0.758   1.25390   0.03762  140.
 0.760   1.24359   0.03731  140.
 0.762   1.23425   0.03703  140.
 0.764   1.22482   0.03674  140.
 0.766   1.21494   0.03645  140.
 0.768   1.20911   0.03627  140.
 0.770   1.20522   0.03616  140.
 0.772   1.19972   0.03599  140.
 0.774   1.19312   0.03579  140.
 0.776   1.18652   0.03560  140.
 0.778   1.18031   0.03541  140.
 0.780   1.17458   0.03524  140.
 0.782   1.16896   0.03507  140.
 0.784   1.16342   0.03490  140.
 0.786   1.16003   0.03480  140.
 0.788   1.15801   0.03474  140.
 0.790   1.15190   0.03456  140.
 0.792   1.14056   0.03422  140.
 0.794   1.13193   0.03396  140.
 0.796   1.13039   0.03391  140.
 0.798   1.12986   0.03390  140.
 0.800   1.12657   0.03380  140.
 0.802   1.12225   0.03367  140.
 0.804   1.11774   0.03353  140.
 0.806   1.11329   0.03340  140.
 0.808   1.10970   0.03329  140.
 0.810   1.10856   0.03326  140.
 0.812   1.10901   0.03327  140.
 0.814   1.10630   0.03319  140.
 0.816   1.09730   0.03292  140.
 0.818   1.08405   0.03252  140.
 0.820   1.07291   0.03219  139.
 0.822   1.06858   0.03206  139.
 0.824   1.06890   0.03207  139.
 0.826   1.06864   0.03206  139.
 0.828   1.06463   0.03194  139.
 0.830   1.05676   0.03170  139.
 0.832   1.04745   0.03142  139.
 0.834   1.04064   0.03122  139.
 0.836   1.03736   0.03112  139.
 0.838   1.03427   0.03103  139.
 0.840   1.02924   0.03088  139.
 0.842   1.02277   0.03068  139.
 0.844   1.01620   0.03049  138.
 0.846   1.00651   0.03020  138.
 0.848   0.98825   0.02965  138.
 0.850   0.96304   0.02889  138.
 0.852   0.93811   0.02814  138.
 0.854   0.92617   0.02779  138.
 0.856   0.93736   0.02812  138.
 0.858   0.95963   0.02879  138.
 0.860   0.97484   0.02925  138.
 0.862   0.97696   0.02931  138.
 0.864   0.96668   0.02900  138.
 0.866   0.95558   0.02867  138.
 0.868   0.95847   0.02875  138.
 0.870   0.97054   0.02912  137.
 0.872   0.97559   0.02927  137.
 0.874   0.97004   0.02910  137.
 0.876   0.96169   0.02885  137.
 0.878   0.95452   0.02864  137.
 0.880   0.94722   0.02842  137.
 0.882   0.94051   0.02822  137.
 0.884   0.93510   0.02805  137.
 0.886   0.93065   0.02792  137.
 0.888   0.92796   0.02784  137.
 0.890   0.92559   0.02777  137.
 0.892   0.92110   0.02763  137.
 0.894   0.91563   0.02747  137.
 0.896   0.91025   0.02731  137.
 0.898   0.90304   0.02709  136.
 0.900   0.89460   0.02684  136.
 0.902   0.88982   0.02669  136.
 0.904   0.88928   0.02668  136.
 0.906   0.88722   0.02662  136.
 0.908   0.88174   0.02645  136.
 0.910   0.87714   0.02631  136.
 0.912   0.87585   0.02628  136.
 0.914   0.87521   0.02626  136.
 0.916   0.87197   0.02616  136.
 0.918   0.86505   0.02595  136.
 0.920   0.85501   0.02565  136.
 0.922   0.84503   0.02535  136.
 0.924   0.83995   0.02520  136.
 0.926   0.84096   0.02523  135.
 0.928   0.84437   0.02533  135.
 0.930   0.84614   0.02538  135.
 0.932   0.84501   0.02535  135.
 0.934   0.84153   0.02525  135.
 0.936   0.83626   0.02509  135.
 0.938   0.82923   0.02488  135.
 0.940   0.82137   0.02464  135.
 0.942   0.81553   0.02447  135.
 0.944   0.81371   0.02441  135.
 0.946   0.81436   0.02443  135.
 0.948   0.81405   0.02442  135.
 0.950   0.81029   0.02431  135.
 0.952   0.80321   0.02410  135.
 0.954   0.79591   0.02388  135.
 0.956   0.79195   0.02376  135.
 0.958   0.79107   0.02373  135.
 0.960   0.78997   0.02370  134.
 0.962   0.78690   0.02361  134.
 0.964   0.78288   0.02349  134.
 0.966   0.77948   0.02338  134.
 0.968   0.77701   0.02331  134.
 0.970   0.77457   0.02324  134.
 0.972   0.77130   0.02314  134.
 0.974   0.76746   0.02302  134.
 0.976   0.76388   0.02292  134.
 0.978   0.76104   0.02283  134.
 0.980   0.75877   0.02276  134.
 0.982   0.75641   0.02269  134.
 0.984   0.75333   0.02260  134.
 0.986   0.74952   0.02249  134.
 0.988   0.74566   0.02237  134.
 0.990   0.74260   0.02228  134.
 0.992   0.74049   0.02221  134.
 0.994   0.73867   0.02216  133.
 0.996   0.73633   0.02209  133.
 0.998   0.73289   0.02199  133.
 1.000   0.72776   0.02183  133.
 1.002   0.72091   0.02163  133.
 1.004   0.71423   0.02143  133.
 1.006   0.71057   0.02132  133.
 1.008   0.71027   0.02131  133.
 1.010   0.71062   0.02132  133.
 1.012   0.70920   0.02128  133.
 1.014   0.70584   0.02118  133.
 1.016   0.70163   0.02105  133.
 1.018   0.69775   0.02093  133.
 1.020   0.69500   0.02085  133.
 1.022   0.69346   0.02080  133.
 1.024   0.69238   0.02077  133.
 1.026   0.69067   0.02072  133.
 1.028   0.68774   0.02063  133.
 1.030   0.68376   0.02051  133.
 1.032   0.67936   0.02038  133.
 1.034   0.67531   0.02026  132.
 1.036   0.67203   0.02016  132.
 1.038   0.66946   0.02008  132.
 1.040   0.66714   0.02001  132.
 1.042   0.66464   0.01994  132.
 1.044   0.66193   0.01986  132.
 1.046   0.65944   0.01978  132.
 1.048   0.65748   0.01972  132.
 1.050   0.65579   0.01967  132.
 1.052   0.65382   0.01961  132.
 1.054   0.65121   0.01954  132.
 1.056   0.64788   0.01944  132.
 1.058   0.64418   0.01933  132.
 1.060   0.64085   0.01923  132.
 1.062   0.63807   0.01914  132.
 1.064   0.63508   0.01905  132.
 1.066   0.63126   0.01894  132.
 1.068   0.62718   0.01882  132.
 1.070   0.62403   0.01872  132.
 1.072   0.62219   0.01867  132.
 1.074   0.62098   0.01863  132.
 1.076   0.61941   0.01858  131.
 1.078   0.61686   0.01851  131.
 1.080   0.61348   0.01840  131.
 1.082   0.61008   0.01830  131.
 1.084   0.60725   0.01822  131.
 1.086   0.60476   0.01814  131.
 1.088   0.60184   0.01806  131.
 1.090   0.59771   0.01793  131.
 1.092   0.59242   0.01777  131.
 1.094   0.58731   0.01762  131.
 1.096   0.58417   0.01753  131.
 1.098   0.58339   0.01750  131.
 1.100   0.58388   0.01752  131.
 1.102   0.58467   0.01754  152.
 1.104   0.58461   0.01754  152.
 1.106   0.58382   0.01751  153.
 1.108   0.58226   0.01747  153.
 1.110   0.58002   0.01740  153.
 1.112   0.57752   0.01733  153.
 1.114   0.57515   0.01725  153.
 1.116   0.57278   0.01718  153.
 1.118   0.57017   0.01711  154.
 1.120   0.56742   0.01702  154.
 1.122   0.56455   0.01694  154.
 1.124   0.56130   0.01684  154.
 1.126   0.55797   0.01674  154.
 1.128   0.55525   0.01666  154.
 1.130   0.55328   0.01660  155.
 1.132   0.55162   0.01655  155.
 1.134   0.54974   0.01649  155.
 1.136   0.54721   0.01642  155.
 1.138   0.54417   0.01633  155.
 1.140   0.54156   0.01625  155.
 1.142   0.54020   0.01621  156.
 1.144   0.53997   0.01620  156.
 1.146   0.53996   0.01620  156.
 1.148   0.53928   0.01618  156.
 1.150   0.53781   0.01613  156.
 1.152   0.53595   0.01608  156.
 1.154   0.53378   0.01601  156.
 1.156   0.53084   0.01593  157.
 1.158   0.52699   0.01581  157.
 1.160   0.52312   0.01569  157.
 1.162   0.52033   0.01561  157.
 1.164   0.51873   0.01556  157.
 1.166   0.51768   0.01553  157.
 1.168   0.51683   0.01550  158.
 1.170   0.51598   0.01548  158.
 1.172   0.51462   0.01544  158.
 1.174   0.51245   0.01537  158.
 1.176   0.50999   0.01530  158.
 1.178   0.50786   0.01524  158.
 1.180   0.50587   0.01518  158.
 1.182   0.50371   0.01511  159.
 1.184   0.50169   0.01505  159.
 1.186   0.49996   0.01500  159.
 1.188   0.49857   0.01496  159.
 1.190   0.49772   0.01493  159.
 1.192   0.49685   0.01491  159.
 1.194   0.49458   0.01484  160.
 1.196   0.49071   0.01472  160.
 1.198   0.48692   0.01461  160.
 1.200   0.48468   0.01454  160.
 1.202   0.48360   0.01451  160.
 1.204   0.48239   0.01447  160.
 1.206   0.48046   0.01441  160.
 1.208   0.47834   0.01435  161.
 1.210   0.47725   0.01432  161.
 1.212   0.47762   0.01433  161.
 1.214   0.47839   0.01435  161.
 1.216   0.47835   0.01435  161.
 1.218   0.47723   0.01432  161.
 1.220   0.47543   0.01426  162.
 1.222   0.47330   0.01420  162.
 1.224   0.47101   0.01413  162.
 1.226   0.46873   0.01406  162.
 1.228   0.46673   0.01400  162.
 1.230   0.46505   0.01395  162.
 1.232   0.46349   0.01390  162.
 1.234   0.46191   0.01386  163.
 1.236   0.46023   0.01381  163.
 1.238   0.45833   0.01375  163.
 1.240   0.45627   0.01369  163.
 1.242   0.45440   0.01363  163.
 1.244   0.45300   0.01359  163.
 1.246   0.45200   0.01356  163.
 1.248   0.45095   0.01353  164.
 1.250   0.44954   0.01349  164.
 1.252   0.44789   0.01344  164.
 1.254   0.44636   0.01339  164.
 1.256   0.44513   0.01335  164.
 1.258   0.44410   0.01332  164.
 1.260   0.44305   0.01329  164.
 1.262   0.44180   0.01325  165.
 1.264   0.44032   0.01321  165.
 1.266   0.43885   0.01317  165.
 1.268   0.43767   0.01313  165.
 1.270   0.43680   0.01310  165.
 1.272   0.43586   0.01308  165.
 1.274   0.43423   0.01303  166.
 1.276   0.43111   0.01293  166.
 1.278   0.42585   0.01278  166.
 1.280   0.41947   0.01258  166.
 1.282   0.41508   0.01245  166.
 1.284   0.41490   0.01245  166.
 1.286   0.41763   0.01253  166.
 1.288   0.42022   0.01261  167.
 1.290   0.42127   0.01264  167.
 1.292   0.42120   0.01264  167.
 1.294   0.42065   0.01262  167.
 1.296   0.41977   0.01259  167.
 1.298   0.41851   0.01256  167.
 1.300   0.41689   0.01251  167.
 1.302   0.41515   0.01245  168.
 1.304   0.41356   0.01241  168.
 1.306   0.41206   0.01236  168.
 1.308   0.41016   0.01230  168.
 1.310   0.40757   0.01223  168.
 1.312   0.40471   0.01214  168.
 1.314   0.40249   0.01207  168.
 1.316   0.40147   0.01204  169.
 1.318   0.40131   0.01204  169.
 1.320   0.40120   0.01204  169.
 1.322   0.40053   0.01202  169.
 1.324   0.39915   0.01197  169.
 1.326   0.39720   0.01192  169.
 1.328   0.39517   0.01186  169.
 1.330   0.39364   0.01181  169.
 1.332   0.39281   0.01178  170.
 1.334   0.39225   0.01177  170.
 1.336   0.39137   0.01174  170.
 1.338   0.39011   0.01170  170.
 1.340   0.38887   0.01167  170.
 1.342   0.38793   0.01164  170.
 1.344   0.38708   0.01161  170.
 1.346   0.38603   0.01158  171.
 1.348   0.38470   0.01154  171.
 1.350   0.38320   0.01150  171.
 1.352   0.38159   0.01145  171.
 1.354   0.37984   0.01140  171.
 1.356   0.37811   0.01134  171.
 1.358   0.37668   0.01130  171.
 1.360   0.37555   0.01127  172.
 1.362   0.37450   0.01124  172.
 1.364   0.37331   0.01120  172.
 1.366   0.37194   0.01116  172.
 1.368   0.37052   0.01112  172.
 1.370   0.36928   0.01108  172.
 1.372   0.36827   0.01105  172.
 1.374   0.36732   0.01102  173.
 1.376   0.36640   0.01099  173.
 1.378   0.36557   0.01097  173.
 1.380   0.36477   0.01094  173.
 1.382   0.36387   0.01092  173.
 1.384   0.36292   0.01089  173.
 1.386   0.36200   0.01086  173.
 1.388   0.36106   0.01083  173.
 1.390   0.36006   0.01080  174.
 1.392   0.35896   0.01077  174.
 1.394   0.35776   0.01073  174.
 1.396   0.35642   0.01069  174.
 1.398   0.35489   0.01065  174.
 1.400   0.35331   0.01060  174.
 1.402   0.35198   0.01056  174.
 1.404   0.35100   0.01053  175.
 1.406   0.35013   0.01050  175.
 1.408   0.34900   0.01047  175.
 1.410   0.34755   0.01043  175.
 1.412   0.34616   0.01038  175.
 1.414   0.34516   0.01035  175.
 1.416   0.34437   0.01033  175.
 1.418   0.34325   0.01030  175.
 1.420   0.34155   0.01025  176.
 1.422   0.33952   0.01019  176.
 1.424   0.33762   0.01013  176.
 1.426   0.33618   0.01009  176.
 1.428   0.33541   0.01006  176.
 1.430   0.33529   0.01006  176.
 1.432   0.33550   0.01007  176.
 1.434   0.33543   0.01006  177.
 1.436   0.33451   0.01004  177.
 1.438   0.33265   0.00998  177.
 1.440   0.33043   0.00991  177.
 1.442   0.32873   0.00986  177.
 1.444   0.32793   0.00984  177.
 1.446   0.32759   0.00983  177.
 1.448   0.32699   0.00981  177.
 1.450   0.32582   0.00977  178.
 1.452   0.32442   0.00973  178.
 1.454   0.32330   0.00970  178.
 1.456   0.32268   0.00968  178.
 1.458   0.32227   0.00967  178.
 1.460   0.32162   0.00965  178.
 1.462   0.32061   0.00962  178.
 1.464   0.31948   0.00958  178.
 1.466   0.31836   0.00955  179.
 1.468   0.31707   0.00951  179.
 1.470   0.31540   0.00946  179.
 1.472   0.31351   0.00941  179.
 1.474   0.31191   0.00936  179.
 1.476   0.31097   0.00933  179.
 1.478   0.31057   0.00932  179.
 1.480   0.31021   0.00931  179.
 1.482   0.30935   0.00928  180.
 1.484   0.30778   0.00923  180.
 1.486   0.30592   0.00918  180.
 1.488   0.30470   0.00914  180.
 1.490   0.30462   0.00914  180.
 1.492   0.30510   0.00915  180.
 1.494   0.30512   0.00915  180.
 1.496   0.30414   0.00912  180.
 1.498   0.30205   0.00906  181.
 1.500   0.29889   0.00897  181.
 1.502   0.29525   0.00886  181.
 1.504   0.29255   0.00878  181.
 1.506   0.29194   0.00876  181.
 1.508   0.29300   0.00879  181.
 1.510   0.29426   0.00883  181.
 1.512   0.29466   0.00884  181.
 1.514   0.29422   0.00883  181.
 1.516   0.29335   0.00880  181.
 1.518   0.29232   0.00877  181.
 1.520   0.29120   0.00874  181.
 1.522   0.29014   0.00870  181.
 1.524   0.28921   0.00868  181.
 1.526   0.28827   0.00865  181.
 1.528   0.28714   0.00861  181.
 1.530   0.28589   0.00858  181.
 1.532   0.28472   0.00854  181.
 1.534   0.28366   0.00851  181.
 1.536   0.28255   0.00848  181.
 1.538   0.28140   0.00844  181.
 1.540   0.28045   0.00841  181.
 1.542   0.27982   0.00839  181.
 1.544   0.27926   0.00838  181.
 1.546   0.27839   0.00835  181.
 1.548   0.27717   0.00831  181.
 1.550   0.27583   0.00827  181.
 1.552   0.27458   0.00824  181.
 1.554   0.27355   0.00821  181.
 1.556   0.27284   0.00819  181.
 1.558   0.27243   0.00817  181.
 1.560   0.27209   0.00816  181.
 1.562   0.27151   0.00815  181.
 1.564   0.27059   0.00812  181.
 1.566   0.26945   0.00808  181.
 1.568   0.26823   0.00805  181.
 1.570   0.26679   0.00800  181.
 1.572   0.26488   0.00795  181.
 1.574   0.26264   0.00788  181.
 1.576   0.26081   0.00782  181.
 1.578   0.25995   0.00780  181.
 1.580   0.25975   0.00779  181.
 1.582   0.25930   0.00778  180.
 1.584   0.25793   0.00774  180.
 1.586   0.25577   0.00767  180.
 1.588   0.25374   0.00761  180.
 1.590   0.25291   0.00759  180.
 1.592   0.25354   0.00761  180.
 1.594   0.25480   0.00764  180.
 1.596   0.25564   0.00767  180.
 1.598   0.25560   0.00767  180.
 1.600   0.25484   0.00765  180.
 1.602   0.25367   0.00761  180.
 1.604   0.25226   0.00757  180.
 1.606   0.25065   0.00752  180.
 1.608   0.24890   0.00747  180.
 1.610   0.24722   0.00742  180.
 1.612   0.24582   0.00737  180.
 1.614   0.24473   0.00734  180.
 1.616   0.24390   0.00732  180.
 1.618   0.24340   0.00730  180.
 1.620   0.24332   0.00730  180.
 1.622   0.24364   0.00731  180.
 1.624   0.24411   0.00732  180.
 1.626   0.24434   0.00733  180.
 1.628   0.24397   0.00732  180.
 1.630   0.24283   0.00728  180.
 1.632   0.24091   0.00723  180.
 1.634   0.23833   0.00715  180.
 1.636   0.23538   0.00706  180.
 1.638   0.23261   0.00698  180.
 1.640   0.23060   0.00692  180.
 1.642   0.22966   0.00689  180.
 1.644   0.22961   0.00689  180.
 1.646   0.22996   0.00690  180.
 1.648   0.23032   0.00691  180.
 1.650   0.23055   0.00692  180.
 1.652   0.23067   0.00692  180.
 1.654   0.23073   0.00692  180.
 1.656   0.23070   0.00692  180.
 1.658   0.23046   0.00691  180.
 1.660   0.22991   0.00690  180.
 1.662   0.22896   0.00687  180.
 1.664   0.22765   0.00683  180.
 1.666   0.22611   0.00678  180.
 1.668   0.22447   0.00673  180.
 1.670   0.22279   0.00668  180.
 1.672   0.22103   0.00663  180.
 1.674   0.21911   0.00657  180.
 1.676   0.21702   0.00651  180.
 1.678   0.21496   0.00645  180.
 1.680   0.21339   0.00640  180.
 1.682   0.21273   0.00638  180.
 1.684   0.21301   0.00639  180.
 1.686   0.21381   0.00641  180.
 1.688   0.21461   0.00644  180.
 1.690   0.21514   0.00645  180.
 1.692   0.21530   0.00646  180.
 1.694   0.21505   0.00645  180.
 1.696   0.21437   0.00643  180.
 1.698   0.21332   0.00640  180.
 1.700   0.21208   0.00636  180.
 1.702   0.21080   0.00632  180.
 1.704   0.20954   0.00629  180.
 1.706   0.20835   0.00625  180.
 1.708   0.20730   0.00622  180.
 1.710   0.20656   0.00620  180.
 1.712   0.20618   0.00619  180.
 1.714   0.20599   0.00618  180.
 1.716   0.20564   0.00617  180.
 1.718   0.20491   0.00615  180.
 1.720   0.20387   0.00612  180.
 1.722   0.20274   0.00608  180.
 1.724   0.20171   0.00605  180.
 1.726   0.20068   0.00602  180.
 1.728   0.19936   0.00598  180.
 1.730   0.19747   0.00592  180.
 1.732   0.19516   0.00585  180.
 1.734   0.19297   0.00579  180.
 1.736   0.19157   0.00575  180.
 1.738   0.19124   0.00574  180.
 1.740   0.19170   0.00575  180.
 1.742   0.19234   0.00577  180.
 1.744   0.19271   0.00578  180.
 1.746   0.19270   0.00578  180.
 1.748   0.19244   0.00577  180.
 1.750   0.19213   0.00576  180.
 1.752   0.19182   0.00575  180.
 1.754   0.19145   0.00574  180.
 1.756   0.19090   0.00573  180.
 1.758   0.19009   0.00570  180.
 1.760   0.18909   0.00567  180.
 1.762   0.18806   0.00564  180.
 1.764   0.18714   0.00561  180.
 1.766   0.18637   0.00559  180.
 1.768   0.18565   0.00557  180.
 1.770   0.18488   0.00555  180.
 1.772   0.18401   0.00552  180.
 1.774   0.18304   0.00549  180.
 1.776   0.18203   0.00546  180.
 1.778   0.18112   0.00543  180.
 1.780   0.18037   0.00541  180.
 1.782   0.17982   0.00539  180.
 1.784   0.17941   0.00538  180.
 1.786   0.17908   0.00537  180.
 1.788   0.17873   0.00536  180.
 1.790   0.17831   0.00535  180.
 1.792   0.17779   0.00533  180.
 1.794   0.17721   0.00532  180.
 1.796   0.17659   0.00530  180.
 1.798   0.17594   0.00528  180.
 1.800   0.17526   0.00526  180.
 1.802   0.17450   0.00523  232.
 1.804   0.17391   0.00522  232.
 1.806   0.17342   0.00520  232.
 1.808   0.17279   0.00518  232.
 1.810   0.17171   0.00515  233.
 1.812   0.16988   0.00510  233.
 1.814   0.16730   0.00502  233.
 1.816   0.16460   0.00494  233.
 1.818   0.16291   0.00489  233.
 1.820   0.16288   0.00489  233.
 1.822   0.16401   0.00492  233.
 1.824   0.16533   0.00496  233.
 1.826   0.16612   0.00498  233.
 1.828   0.16625   0.00499  233.
 1.830   0.16592   0.00498  233.
 1.832   0.16538   0.00496  233.
 1.834   0.16475   0.00494  233.
 1.836   0.16404   0.00492  233.
 1.838   0.16322   0.00490  233.
 1.840   0.16227   0.00487  233.
 1.842   0.16127   0.00484  233.
 1.844   0.16037   0.00481  233.
 1.846   0.15976   0.00479  233.
 1.848   0.15956   0.00479  233.
 1.850   0.15961   0.00479  233.
 1.852   0.15954   0.00479  233.
 1.854   0.15917   0.00477  233.
 1.856   0.15854   0.00476  233.
 1.858   0.15779   0.00473  233.
 1.860   0.15697   0.00471  233.
 1.862   0.15614   0.00468  233.
 1.864   0.15529   0.00466  233.
 1.866   0.15437   0.00463  233.
 1.868   0.15312   0.00459  233.
 1.870   0.15111   0.00453  233.
 1.872   0.14827   0.00445  233.
 1.874   0.14558   0.00437  234.
 1.876   0.14451   0.00434  234.
 1.878   0.14553   0.00437  234.
 1.880   0.14755   0.00443  234.
 1.882   0.14914   0.00447  234.
 1.884   0.14972   0.00449  234.
 1.886   0.14946   0.00448  234.
 1.888   0.14871   0.00446  234.
 1.890   0.14764   0.00443  234.
 1.892   0.14645   0.00439  234.
 1.894   0.14544   0.00436  234.
 1.896   0.14485   0.00435  234.
 1.898   0.14472   0.00434  234.
 1.900   0.14479   0.00434  234.
 1.902   0.14474   0.00434  234.
 1.904   0.14442   0.00433  234.
 1.906   0.14390   0.00432  234.
 1.908   0.14330   0.00430  234.
 1.910   0.14270   0.00428  234.
 1.912   0.14218   0.00427  234.
 1.914   0.14172   0.00425  234.
 1.916   0.14126   0.00424  234.
 1.918   0.14077   0.00422  234.
 1.920   0.14032   0.00421  234.
 1.922   0.13991   0.00420  234.
 1.924   0.13940   0.00418  234.
 1.926   0.13867   0.00416  234.
 1.928   0.13776   0.00413  234.
 1.930   0.13691   0.00411  234.
 1.932   0.13633   0.00409  234.
 1.934   0.13595   0.00408  234.
 1.936   0.13543   0.00406  234.
 1.938   0.13437   0.00403  234.
 1.940   0.13260   0.00398  234.
 1.942   0.13042   0.00391  235.
 1.944   0.12862   0.00386  235.
 1.946   0.12796   0.00384  235.
 1.948   0.12851   0.00386  235.
 1.950   0.12967   0.00389  235.
 1.952   0.13081   0.00392  235.
 1.954   0.13160   0.00395  235.
 1.956   0.13189   0.00396  235.
 1.958   0.13162   0.00395  235.
 1.960   0.13093   0.00393  235.
 1.962   0.13009   0.00390  235.
 1.964   0.12939   0.00388  235.
 1.966   0.12890   0.00387  235.
 1.968   0.12845   0.00385  235.
 1.970   0.12782   0.00383  235.
 1.972   0.12700   0.00381  235.
 1.974   0.12616   0.00378  235.
 1.976   0.12541   0.00376  235.
 1.978   0.12479   0.00374  235.
 1.980   0.12431   0.00373  235.
 1.982   0.12392   0.00372  235.
 1.984   0.12360   0.00371  235.
 1.986   0.12333   0.00370  235.
 1.988   0.12306   0.00369  235.
 1.990   0.12270   0.00368  235.
 1.992   0.12219   0.00367  235.
 1.994   0.12164   0.00365  235.
 1.996   0.12119   0.00364  235.
 1.998   0.12085   0.00363  235.
 2.000   0.12054   0.00362  235.
 2.002   0.12019   0.00361  235.
 2.004   0.11984   0.00360  235.
 2.006   0.11956   0.00359  235.
 2.008   0.11932   0.00358  235.
 2.010   0.11905   0.00357  235.
 2.012   0.11869   0.00356  235.
 2.014   0.11823   0.00355  235.
 2.016   0.11765   0.00353  236.
 2.018   0.11698   0.00351  236.
 2.020   0.11630   0.00349  236.
 2.022   0.11572   0.00347  236.
 2.024   0.11526   0.00346  236.
 2.026   0.11482   0.00344  236.
 2.028   0.11433   0.00343  236.
 2.030   0.11383   0.00341  236.
 2.032   0.11335   0.00340  236.
 2.034   0.11291   0.00339  236.
 2.036   0.11252   0.00338  236.
 2.038   0.11225   0.00337  236.
 2.040   0.11213   0.00336  236.
 2.042   0.11209   0.00336  236.
 2.044   0.11199   0.00336  236.
 2.046   0.11174   0.00335  236.
 2.048   0.11134   0.00334  236.
 2.050   0.11086   0.00333  236.
 2.052   0.11037   0.00331  236.
 2.054   0.10991   0.00330  236.
 2.056   0.10943   0.00328  236.
 2.058   0.10887   0.00327  236.
 2.060   0.10827   0.00325  236.
 2.062   0.10772   0.00323  236.
 2.064   0.10733   0.00322  236.
 2.066   0.10708   0.00321  236.
 2.068   0.10688   0.00321  236.
 2.070   0.10668   0.00320  236.
 2.072   0.10648   0.00319  236.
 2.074   0.10626   0.00319  236.
 2.076   0.10595   0.00318  236.
 2.078   0.10550   0.00316  236.
 2.080   0.10498   0.00315  236.
 2.082   0.10450   0.00314  236.
 2.084   0.10412   0.00312  236.
 2.086   0.10379   0.00311  236.
 2.088   0.10339   0.00310  236.
 2.090   0.10287   0.00309  236.
 2.092   0.10232   0.00307  237.
 2.094   0.10188   0.00306  237.
 2.096   0.10162   0.00305  237.
 2.098   0.10149   0.00304  237.
 2.100   0.10139   0.00304  237.
 2.102   0.10124   0.00304  237.
 2.104   0.10103   0.00303  237.
 2.106   0.10072   0.00302  237.
 2.108   0.10034   0.00301  237.
 2.110   0.09993   0.00300  237.
 2.112   0.09951   0.00299  237.
 2.114   0.09907   0.00297  237.
 2.116   0.09861   0.00296  237.
 2.118   0.09815   0.00294  237.
 2.120   0.09770   0.00293  237.
 2.122   0.09730   0.00292  237.
 2.124   0.09698   0.00291  237.
 2.126   0.09675   0.00290  237.
 2.128   0.09657   0.00290  237.
 2.130   0.09638   0.00289  237.
 2.132   0.09613   0.00288  237.
 2.134   0.09583   0.00288  237.
 2.136   0.09555   0.00287  237.
 2.138   0.09534   0.00286  237.
 2.140   0.09517   0.00286  237.
 2.142   0.09499   0.00285  237.
 2.144   0.09477   0.00284  237.
 2.146   0.09453   0.00284  237.
 2.148   0.09428   0.00283  237.
 2.150   0.09401   0.00282  237.
 2.152   0.09369   0.00281  237.
 2.154   0.09331   0.00280  237.
 2.156   0.09283   0.00278  237.
 2.158   0.09214   0.00276  237.
 2.160   0.09115   0.00273  237.
 2.162   0.08990   0.00270  237.
 2.164   0.08869   0.00266  237.
 2.166   0.08794   0.00264  237.
 2.168   0.08790   0.00264  237.
 2.170   0.08836   0.00265  237.
 2.172   0.08890   0.00267  238.
 2.174   0.08919   0.00268  238.
 2.176   0.08919   0.00268  238.
 2.178   0.08903   0.00267  238.
 2.180   0.08884   0.00267  238.
 2.182   0.08865   0.00266  238.
 2.184   0.08842   0.00265  238.
 2.186   0.08812   0.00264  238.
 2.188   0.08779   0.00263  238.
 2.190   0.08748   0.00262  238.
 2.192   0.08721   0.00262  238.
 2.194   0.08695   0.00261  238.
 2.196   0.08666   0.00260  238.
 2.198   0.08630   0.00259  238.
 2.200   0.08586   0.00258  238.
 2.202   0.08532   0.00256  238.
 2.204   0.08474   0.00254  238.
 2.206   0.08422   0.00253  238.
 2.208   0.08388   0.00252  238.
 2.210   0.08372   0.00251  238.
 2.212   0.08363   0.00251  238.
 2.214   0.08351   0.00251  238.
 2.216   0.08331   0.00250  238.
 2.218   0.08308   0.00249  238.
 2.220   0.08281   0.00248  238.
 2.222   0.08252   0.00248  238.
 2.224   0.08220   0.00247  238.
 2.226   0.08189   0.00246  238.
 2.228   0.08161   0.00245  238.
 2.230   0.08138   0.00244  238.
 2.232   0.08113   0.00243  238.
 2.234   0.08082   0.00242  238.
 2.236   0.08047   0.00241  238.
 2.238   0.08010   0.00240  238.
 2.240   0.07977   0.00239  238.
 2.242   0.07949   0.00238  238.
 2.244   0.07923   0.00238  238.
 2.246   0.07897   0.00237  238.
 2.248   0.07868   0.00236  238.
 2.250   0.07837   0.00235  238.
 2.252   0.07805   0.00234  238.
 2.254   0.07776   0.00233  238.
 2.256   0.07750   0.00232  238.
 2.258   0.07725   0.00232  239.
 2.260   0.07700   0.00231  239.
 2.262   0.07676   0.00230  239.
 2.264   0.07653   0.00230  239.
 2.266   0.07634   0.00229  239.
 2.268   0.07617   0.00229  239.
 2.270   0.07599   0.00228  239.
 2.272   0.07578   0.00227  239.
 2.274   0.07552   0.00227  239.
 2.276   0.07520   0.00226  239.
 2.278   0.07482   0.00224  239.
 2.280   0.07443   0.00223  239.
 2.282   0.07410   0.00222  239.
 2.284   0.07386   0.00222  239.
 2.286   0.07367   0.00221  239.
 2.288   0.07344   0.00220  239.
 2.290   0.07313   0.00219  239.
 2.292   0.07273   0.00218  239.
 2.294   0.07234   0.00217  239.
 2.296   0.07203   0.00216  239.
 2.298   0.07186   0.00216  239.
 2.300   0.07178   0.00215  239.
 2.302   0.07172   0.00215  239.
 2.304   0.07162   0.00215  239.
 2.306   0.07147   0.00214  239.
 2.308   0.07127   0.00214  239.
 2.310   0.07102   0.00213  239.
 2.312   0.07073   0.00212  239.
 2.314   0.07040   0.00211  239.
 2.316   0.07003   0.00210  239.
 2.318   0.06962   0.00209  239.
 2.320   0.06918   0.00208  239.
 2.322   0.06874   0.00206  239.
 2.324   0.06837   0.00205  239.
 2.326   0.06813   0.00204  239.
 2.328   0.06800   0.00204  239.
 2.330   0.06791   0.00204  239.
 2.332   0.06782   0.00203  239.
 2.334   0.06770   0.00203  239.
 2.336   0.06756   0.00203  239.
 2.338   0.06742   0.00202  239.
 2.340   0.06730   0.00202  239.
 2.342   0.06717   0.00202  239.
 2.344   0.06699   0.00201  239.
 2.346   0.06672   0.00200  239.
 2.348   0.06635   0.00199  239.
 2.350   0.06589   0.00198  239.
 2.352   0.06543   0.00196  240.
 2.354   0.06505   0.00195  240.
 2.356   0.06482   0.00194  240.
 2.358   0.06471   0.00194  240.
 2.360   0.06468   0.00194  240.
 2.362   0.06464   0.00194  240.
 2.364   0.06455   0.00194  240.
 2.366   0.06439   0.00193  240.
 2.368   0.06417   0.00193  240.
 2.370   0.06390   0.00192  240.
 2.372   0.06362   0.00191  240.
 2.374   0.06336   0.00190  240.
 2.376   0.06312   0.00189  240.
 2.378   0.06281   0.00188  240.
 2.380   0.06240   0.00187  240.
 2.382   0.06191   0.00186  240.
 2.384   0.06145   0.00184  240.
 2.386   0.06111   0.00183  240.
 2.388   0.06093   0.00183  240.
 2.390   0.06086   0.00182  240.
 2.392   0.06082   0.00181  240.
 2.394   0.06077   0.00179  240.
 2.396   0.06068   0.00176  240.
 2.398   0.06056   0.00171  240.
 2.400   0.06039   0.00164  240.
 2.405   0.05969   0.00136  240.
 2.410   0.05894   0.00119  240.
 2.415   0.05822   0.00116  240.
 2.420   0.05780   0.00116  240.
 2.425   0.05752   0.00115  240.
 2.430   0.05711   0.00114  240.
 2.435   0.05669   0.00113  240.
 2.440   0.05627   0.00113  240.
 2.445   0.05567   0.00111  240.
 2.450   0.05512   0.00110  240.
 2.455   0.05466   0.00109  240.
 2.460   0.05441   0.00109  240.
 2.465   0.05415   0.00108  240.
 2.470   0.05376   0.00108  240.
 2.475   0.05312   0.00106  240.
 2.480   0.05217   0.00104  240.
 2.485   0.05176   0.00104  240.
 2.490   0.05193   0.00104  240.
 2.495   0.05187   0.00104  240.
 2.500   0.05154   0.00103  240.
 2.505   0.05114   0.00102  240.
 2.510   0.05069   0.00101  240.
 2.515   0.05030   0.00101  240.
 2.520   0.04999   0.00100  240.
 2.525   0.04966   0.00099  240.
 2.530   0.04931   0.00099  240.
 2.535   0.04873   0.00097  240.
 2.540   0.04793   0.00096  240.
 2.545   0.04751   0.00095  240.
 2.550   0.04725   0.00094  240.
 2.555   0.04695   0.00094  240.
 2.560   0.04668   0.00093  240.
 2.565   0.04651   0.00093  240.
 2.570   0.04640   0.00093  240.
 2.575   0.04619   0.00092  240.
 2.580   0.04577   0.00092  240.
 2.585   0.04525   0.00090  240.
 2.590   0.04492   0.00090  240.
 2.595   0.04470   0.00089  240.
 2.600   0.04447   0.00089  240.
 2.605   0.04421   0.00088  240.
 2.610   0.04388   0.00088  240.
 2.615   0.04339   0.00087  240.
 2.620   0.04259   0.00085  240.
 2.625   0.04185   0.00084  240.
 2.630   0.04192   0.00084  240.
 2.635   0.04211   0.00084  240.
 2.640   0.04185   0.00084  240.
 2.645   0.04165   0.00083  240.
 2.650   0.04149   0.00083  240.
 2.655   0.04117   0.00082  240.
 2.660   0.04083   0.00082  240.
 2.665   0.04051   0.00081  240.
 2.670   0.04026   0.00081  240.
 2.675   0.04006   0.00080  240.
 2.680   0.03986   0.00080  239.
 2.685   0.03966   0.00079  239.
 2.690   0.03941   0.00079  239.
 2.695   0.03912   0.00078  239.
 2.700   0.03883   0.00078  239.
 2.705   0.03855   0.00077  239.
 2.710   0.03829   0.00077  239.
 2.715   0.03807   0.00076  239.
 2.720   0.03783   0.00076  239.
 2.725   0.03755   0.00075  239.
 2.730   0.03727   0.00075  239.
 2.735   0.03700   0.00074  239.
 2.740   0.03679   0.00074  239.
 2.745   0.03655   0.00073  239.
 2.750   0.03621   0.00072  239.
 2.755   0.03583   0.00072  239.
 2.760   0.03560   0.00071  239.
 2.765   0.03546   0.00071  239.
 2.770   0.03527   0.00071  239.
 2.775   0.03507   0.00070  239.
 2.780   0.03487   0.00070  239.
 2.785   0.03467   0.00069  239.
 2.790   0.03445   0.00069  239.
 2.795   0.03422   0.00068  239.
 2.800   0.03399   0.00068  239.
 2.805   0.03376   0.00068  239.
 2.810   0.03355   0.00067  239.
 2.815   0.03333   0.00067  239.
 2.820   0.03311   0.00066  239.
 2.825   0.03290   0.00066  239.
 2.830   0.03269   0.00065  239.
 2.835   0.03246   0.00065  239.
 2.840   0.03221   0.00064  239.
 2.845   0.03200   0.00064  239.
 2.850   0.03179   0.00064  239.
 2.855   0.03157   0.00063  239.
 2.860   0.03133   0.00063  239.
 2.865   0.03102   0.00062  239.
 2.870   0.03069   0.00061  239.
 2.875   0.03052   0.00061  239.
 2.880   0.03044   0.00061  239.
 2.885   0.03031   0.00061  239.
 2.890   0.03016   0.00060  239.
 2.895   0.03000   0.00060  239.
 2.900   0.02981   0.00060  372.
 2.905   0.02960   0.00059  372.
 2.910   0.02943   0.00059  372.
 2.915   0.02924   0.00058  372.
 2.920   0.02906   0.00058  372.
 2.925   0.02885   0.00058  371.
 2.930   0.02867   0.00057  371.
 2.935   0.02846   0.00057  371.
 2.940   0.02830   0.00057  371.
 2.945   0.02815   0.00056  371.
 2.950   0.02799   0.00056  371.
 2.955   0.02780   0.00056  371.
 2.960   0.02763   0.00055  371.
 2.965   0.02743   0.00055  371.
 2.970   0.02722   0.00054  371.
 2.975   0.02708   0.00054  371.
 2.980   0.02694   0.00054  371.
 2.985   0.02677   0.00054  371.
 2.990   0.02661   0.00053  371.
 2.995   0.02642   0.00053  370.
 3.000   0.02623   0.00052  370.
 3.005   0.02609   0.00052  370.
 3.010   0.02595   0.00052  370.
 3.015   0.02577   0.00052  370.
 3.020   0.02561   0.00051  370.
 3.025   0.02543   0.00051  370.
 3.030   0.02522   0.00050  370.
 3.035   0.02486   0.00050  370.
 3.040   0.02464   0.00049  370.
 3.045   0.02467   0.00049  370.
 3.050   0.02464   0.00049  370.
 3.055   0.02452   0.00049  370.
 3.060   0.02438   0.00049  370.
 3.065   0.02422   0.00048  369.
 3.070   0.02407   0.00048  369.
 3.075   0.02394   0.00048  369.
 3.080   0.02375   0.00048  369.
 3.085   0.02358   0.00047  369.
 3.090   0.02346   0.00047  369.
 3.095   0.02335   0.00047  369.
 3.100   0.02323   0.00046  369.
 3.105   0.02307   0.00046  369.
 3.110   0.02289   0.00046  369.
 3.115   0.02263   0.00045  369.
 3.120   0.02256   0.00045  369.
 3.125   0.02247   0.00045  369.
 3.130   0.02236   0.00045  369.
 3.135   0.02224   0.00044  369.
 3.140   0.02211   0.00044  369.
 3.145   0.02195   0.00044  368.
 3.150   0.02174   0.00043  368.
 3.155   0.02166   0.00043  368.
 3.160   0.02160   0.00043  368.
 3.165   0.02147   0.00043  368.
 3.170   0.02132   0.00043  368.
 3.175   0.02121   0.00042  368.
 3.180   0.02108   0.00042  368.
 3.185   0.02095   0.00042  368.
 3.190   0.02084   0.00042  368.
 3.195   0.02072   0.00041  368.
 3.200   0.02057   0.00041  368.
 3.205   0.02046   0.00041  368.
 3.210   0.02035   0.00041  368.
 3.215   0.02020   0.00040  368.
 3.220   0.02009   0.00040  368.
 3.225   0.02000   0.00040  368.
 3.230   0.01987   0.00040  368.
 3.235   0.01975   0.00039  368.
 3.240   0.01962   0.00039  368.
 3.245   0.01953   0.00039  368.
 3.250   0.01943   0.00039  368.
 3.255   0.01932   0.00039  368.
 3.260   0.01922   0.00038  368.
 3.265   0.01910   0.00038  368.
 3.270   0.01898   0.00038  368.
 3.275   0.01884   0.00038  368.
 3.280   0.01871   0.00037  368.
 3.285   0.01859   0.00037  368.
 3.290   0.01836   0.00037  368.
 3.295   0.01809   0.00036  368.
 3.300   0.01810   0.00036  368.
 3.305   0.01816   0.00036  368.
 3.310   0.01806   0.00036  368.
 3.315   0.01783   0.00036  368.
 3.320   0.01763   0.00035  368.
 3.325   0.01766   0.00035  368.
 3.330   0.01769   0.00035  368.
 3.335   0.01760   0.00035  368.
 3.340   0.01749   0.00035  368.
 3.345   0.01739   0.00035  368.
 3.350   0.01728   0.00035  368.
 3.355   0.01720   0.00034  368.
 3.360   0.01713   0.00034  368.
 3.365   0.01700   0.00034  368.
 3.370   0.01687   0.00034  368.
 3.375   0.01679   0.00034  368.
 3.380   0.01672   0.00033  368.
 3.385   0.01663   0.00033  368.
 3.390   0.01649   0.00033  368.
 3.395   0.01629   0.00033  368.
 3.400   0.01619   0.00032  368.
 3.405   0.01619   0.00032  368.
 3.410   0.01614   0.00032  368.
 3.415   0.01602   0.00032  368.
 3.420   0.01596   0.00032  368.
 3.425   0.01591   0.00032  368.
 3.430   0.01583   0.00032  368.
 3.435   0.01574   0.00031  368.
 3.440   0.01565   0.00031  368.
 3.445   0.01557   0.00031  368.
 3.450   0.01549   0.00031  368.
 3.455   0.01538   0.00031  368.
 3.460   0.01530   0.00031  368.
 3.465   0.01522   0.00030  368.
 3.470   0.01514   0.00030  368.
 3.475   0.01507   0.00030  368.
 3.480   0.01498   0.00030  368.
 3.485   0.01489   0.00030  368.
 3.490   0.01480   0.00030  368.
 3.495   0.01471   0.00029  368.
 3.500   0.01462   0.00029  368.
 3.505   0.01454   0.00029  368.
 3.510   0.01447   0.00029  368.
 3.515   0.01439   0.00029  368.
 3.520   0.01430   0.00029  368.
 3.525   0.01423   0.00028  368.
 3.530   0.01415   0.00028  368.
 3.535   0.01407   0.00028  368.
 3.540   0.01400   0.00028  368.
 3.545   0.01395   0.00028  369.
 3.550   0.01389   0.00028  369.
 3.555   0.01381   0.00028  369.
 3.560   0.01374   0.00027  369.
 3.565   0.01368   0.00027  369.
 3.570   0.01359   0.00027  369.
 3.575   0.01351   0.00027  369.
 3.580   0.01343   0.00027  369.
 3.585   0.01337   0.00027  369.
 3.590   0.01330   0.00027  369.
 3.595   0.01323   0.00026  369.
 3.600   0.01317   0.00026  369.
 3.605   0.01311   0.00026  369.
 3.610   0.01304   0.00026  369.
 3.615   0.01297   0.00026  369.
 3.620   0.01290   0.00026  369.
 3.625   0.01283   0.00026  369.
 3.630   0.01275   0.00025  369.
 3.635   0.01265   0.00025  369.
 3.640   0.01256   0.00025  369.
 3.645   0.01252   0.00025  369.
 3.650   0.01247   0.00025  369.
 3.655   0.01240   0.00025  369.
 3.660   0.01234   0.00025  369.
 3.665   0.01228   0.00025  369.
 3.670   0.01218   0.00024  369.
 3.675   0.01206   0.00024  369.
 3.680   0.01198   0.00024  369.
 3.685   0.01199   0.00024  369.
 3.690   0.01195   0.00024  369.
 3.695   0.01185   0.00024  369.
 3.700   0.01181   0.00024  369.
 3.705   0.01179   0.00024  369.
 3.710   0.01173   0.00023  369.
 3.715   0.01166   0.00023  369.
 3.720   0.01160   0.00023  369.
 3.725   0.01155   0.00023  369.
 3.730   0.01147   0.00023  369.
 3.735   0.01133   0.00023  369.
 3.740   0.01118   0.00022  369.
 3.745   0.01116   0.00022  369.
 3.750   0.01120   0.00022  369.
 3.755   0.01120   0.00022  369.
 3.760   0.01115   0.00022  369.
 3.765   0.01110   0.00022  369.
 3.770   0.01105   0.00022  369.
 3.775   0.01099   0.00022  369.
 3.780   0.01094   0.00022  369.
 3.785   0.01088   0.00022  369.
 3.790   0.01083   0.00022  369.
 3.795   0.01078   0.00022  369.
 3.800   0.01072   0.00021  369.
 3.805   0.01067   0.00021  369.
 3.810   0.01062   0.00021  369.
 3.815   0.01056   0.00021  369.
 3.820   0.01051   0.00021  369.
 3.825   0.01046   0.00021  369.
 3.830   0.01040   0.00021  369.
 3.835   0.01033   0.00021  369.
 3.840   0.01028   0.00021  369.
 3.845   0.01024   0.00020  369.
 3.850   0.01018   0.00020  369.
 3.855   0.01010   0.00020  369.
 3.860   0.00998   0.00020  369.
 3.865   0.00982   0.00020  369.
 3.870   0.00978   0.00020  369.
 3.875   0.00981   0.00020  369.
 3.880   0.00976   0.00020  369.
 3.885   0.00967   0.00019  369.
 3.890   0.00960   0.00019  369.
 3.895   0.00955   0.00019  369.
 3.900   0.00953   0.00019  369.
 3.905   0.00950   0.00019  369.
 3.910   0.00947   0.00019  369.
 3.915   0.00948   0.00019  369.
 3.920   0.00948   0.00019  369.
 3.925   0.00944   0.00019  369.
 3.930   0.00939   0.00019  369.
 3.935   0.00935   0.00019  369.
 3.940   0.00932   0.00019  369.
 3.945   0.00927   0.00019  369.
 3.950   0.00922   0.00018  369.
 3.955   0.00918   0.00018  369.
 3.960   0.00914   0.00018  369.
 3.965   0.00907   0.00018  369.
 3.970   0.00901   0.00018  369.
 3.975   0.00894   0.00018  369.
 3.980   0.00887   0.00018  369.
 3.985   0.00881   0.00018  369.
 3.990   0.00878   0.00018  369.
 3.995   0.00874   0.00017  369.
 4.000   0.00871   0.00017  369.
 4.005   0.00870   0.00017  369.
 4.010   0.00867   0.00017  369.
 4.015   0.00861   0.00017  369.
 4.020   0.00858   0.00017  369.
 4.025   0.00856   0.00017  369.
 4.030   0.00853   0.00017  369.
 4.035   0.00849   0.00017  369.
 4.040   0.00843   0.00017  369.
 4.045   0.00835   0.00017  369.
 4.050   0.00823   0.00016  369.
 4.055   0.00822   0.00016  369.
 4.060   0.00824   0.00016  369.
 4.065   0.00823   0.00016  369.
 4.070   0.00821   0.00016  369.
 4.075   0.00818   0.00016  369.
 4.080   0.00814   0.00016  369.
 4.085   0.00809   0.00016  369.
 4.090   0.00807   0.00016  369.
 4.095   0.00804   0.00016  369.
 4.100   0.00800   0.00016  369.
 4.105   0.00796   0.00016  369.
 4.110   0.00791   0.00016  369.
 4.115   0.00789   0.00016  369.
 4.120   0.00786   0.00016  370.
 4.125   0.00782   0.00016  370.
 4.130   0.00777   0.00016  370.
 4.135   0.00773   0.00015  370.
 4.140   0.00769   0.00015  370.
 4.145   0.00766   0.00015  370.
 4.150   0.00764   0.00015  370.
 4.155   0.00761   0.00015  370.
 4.160   0.00757   0.00015  370.
 4.165   0.00753   0.00015  370.
 4.170   0.00749   0.00015  370.
 4.175   0.00745   0.00015  370.
 4.180   0.00741   0.00015  370.
 4.185   0.00738   0.00015  370.
 4.190   0.00735   0.00015  370.
 4.195   0.00730   0.00015  370.
 4.200   0.00723   0.00014  370.
 4.205   0.00718   0.00014  370.
 4.210   0.00719   0.00014  370.
 4.215   0.00719   0.00014  370.
 4.220   0.00718   0.00014  370.
 4.225   0.00715   0.00014  370.
 4.230   0.00711   0.00014  370.
 4.235   0.00708   0.00014  370.
 4.240   0.00705   0.00014  370.
 4.245   0.00701   0.00014  370.
 4.250   0.00698   0.00014  370.
 4.255   0.00695   0.00014  370.
 4.260   0.00692   0.00014  370.
 4.265   0.00689   0.00014  370.
 4.270   0.00686   0.00014  370.
 4.275   0.00683   0.00014  371.
 4.280   0.00680   0.00014  371.
 4.285   0.00676   0.00014  371.
 4.290   0.00667   0.00013  371.
 4.295   0.00654   0.00013  371.
 4.300   0.00649   0.00013  371.
 4.305   0.00650   0.00013  371.
 4.310   0.00649   0.00013  371.
 4.315   0.00647   0.00013  371.
 4.320   0.00645   0.00013  371.
 4.325   0.00643   0.00013  371.
 4.330   0.00640   0.00013  371.
 4.335   0.00638   0.00013  371.
 4.340   0.00635   0.00013  371.
